#time	strain	shear stress
#s		Pa
0	0	300.0
5.4400E-4	5.8920E-4	300.0
1.5680E-3	7.3476E-3	300.0
2.5920E-3	0.025621	300.0
3.6160E-3	0.054236	300.0
4.6400E-3	0.089409	300.0
5.6640E-3	0.12615	300.0
6.6880E-3	0.15922	300.0
7.7120E-3	0.18378	300.0
8.7360E-3	0.19680	300.0
9.7600E-3	0.19795	300.0
0.010784	0.18958	300.0
0.011808	0.17543	300.0
0.012832	0.15966	300.0
0.013856	0.14577	300.0
0.014880	0.13614	300.0
0.015904	0.13198	300.0
0.016928	0.13342	300.0
0.017952	0.13977	300.0
0.018976	0.14963	300.0
0.020000	0.16104	300.0
0.021024	0.17185	300.0
0.022048	0.18010	300.0
0.023072	0.18464	300.0
0.024096	0.18517	300.0
0.025120	0.18231	300.0
0.026144	0.17737	300.0
0.027168	0.17189	300.0
0.028192	0.16718	300.0
0.029216	0.16421	300.0
0.030240	0.16348	300.0
0.031264	0.16492	300.0
0.032288	0.16806	300.0
0.033312	0.17220	300.0
0.034336	0.17648	300.0
0.035360	0.18008	300.0
0.036384	0.18246	300.0
0.037408	0.18339	300.0
0.038432	0.18292	300.0
0.039456	0.18148	300.0
0.040480	0.17960	300.0
0.042016	0.17725	300.0
0.044064	0.17668	300.0
0.046112	0.17938	300.0
0.048160	0.18331	300.0
0.050208	0.18588	300.0
0.052256	0.18608	300.0
0.054304	0.18486	300.0
0.056352	0.18389	300.0
0.058400	0.18424	300.0
0.060448	0.18579	300.0
0.062496	0.18761	300.0
0.064544	0.18881	300.0
0.066592	0.18923	300.0
0.068640	0.18929	300.0
0.070688	0.18951	300.0
0.072736	0.19006	300.0
0.074784	0.19076	300.0
0.076832	0.19139	300.0
0.078880	0.19187	300.0
0.080928	0.19230	300.0
0.082976	0.19279	300.0
0.085024	0.19343	300.0
0.087072	0.19413	300.0
0.089120	0.19470	300.0
0.091168	0.19507	300.0
0.093216	0.19527	300.0
0.095264	0.19548	300.0
0.097312	0.19581	300.0
0.099360	0.19632	300.0
0.10141	0.19696	300.0
0.10346	0.19758	300.0
0.10550	0.19809	300.0
0.10755	0.19846	300.0
0.10960	0.19874	300.0
0.11165	0.19899	300.0
0.11370	0.19927	300.0
0.11574	0.19961	300.0
0.11779	0.20001	300.0
0.11984	0.20045	300.0
0.12189	0.20088	300.0
0.12496	0.20147	300.0
0.12906	0.20209	300.0
0.13315	0.20264	300.0
0.13725	0.20331	300.0
0.14134	0.20407	300.0
0.14544	0.20468	300.0
0.14954	0.20514	300.0
0.15363	0.20567	300.0
0.15773	0.20638	300.0
0.16182	0.20706	300.0
0.16592	0.20751	300.0
0.17002	0.20789	300.0
0.17411	0.20840	300.0
0.17821	0.20903	300.0
0.18230	0.20961	300.0
0.18640	0.21007	300.0
0.19050	0.21047	300.0
0.19459	0.21098	300.0
0.19869	0.21147	300.0
0.20278	0.21188	300.0
0.20688	0.21228	300.0
0.21098	0.21279	300.0
0.21507	0.21332	300.0
0.21917	0.21376	300.0
0.22326	0.21407	300.0
0.22736	0.21438	300.0
0.23146	0.21487	300.0
0.23555	0.21542	300.0
0.23965	0.21583	300.0
0.24374	0.21609	300.0
0.24784	0.21641	300.0
0.25194	0.21685	300.0
0.25603	0.21731	300.0
0.26013	0.21766	300.0
0.26422	0.21794	300.0
0.26832	0.21829	300.0
0.27242	0.21873	300.0
0.27651	0.21912	300.0
0.28061	0.21939	300.0
0.28470	0.21969	300.0
0.29085	0.22026	300.0
0.29904	0.22091	300.0
0.30723	0.22152	300.0
0.31542	0.22222	300.0
0.32362	0.22274	300.0
0.33181	0.22343	300.0
0.34000	0.22396	300.0
0.34819	0.22453	300.0
0.35638	0.22515	300.0
0.36458	0.22562	300.0
0.37277	0.22621	300.0
0.38096	0.22671	300.0
0.38915	0.22723	300.0
0.39734	0.22779	300.0
0.40554	0.22825	300.0
0.41373	0.22875	300.0
0.42192	0.22924	300.0
0.43011	0.22972	300.0
0.43830	0.23016	300.0
0.44650	0.23063	300.0
0.45469	0.23111	300.0
0.46288	0.23153	300.0
0.47107	0.23196	300.0
0.47926	0.23242	300.0
0.48746	0.23281	300.0
0.49565	0.23325	300.0
0.50384	0.23369	300.0
0.51203	0.23405	300.0
0.52022	0.23450	300.0
0.52842	0.23487	300.0
0.53661	0.23526	300.0
0.54480	0.23565	300.0
0.55299	0.23603	300.0
0.56118	0.23643	300.0
0.56938	0.23675	300.0
0.57757	0.23718	300.0
0.58576	0.23749	300.0
0.59395	0.23786	300.0
0.60214	0.23825	300.0
0.61034	0.23855	300.0
0.62262	0.23908	300.0
0.63901	0.23977	300.0
0.65539	0.24043	300.0
0.67178	0.24106	300.0
0.68816	0.24170	300.0
0.70454	0.24232	300.0
0.72093	0.24293	300.0
0.73731	0.24352	300.0
0.75370	0.24410	300.0
0.77008	0.24466	300.0
0.78646	0.24523	300.0
0.80285	0.24578	300.0
0.81923	0.24631	300.0
0.83562	0.24685	300.0
0.85200	0.24735	300.0
0.86838	0.24788	300.0
0.88477	0.24838	300.0
0.90115	0.24888	300.0
0.91754	0.24936	300.0
0.93392	0.24983	300.0
0.95030	0.25030	300.0
0.96669	0.25079	300.0
0.98307	0.25124	300.0
0.99946	0.25168	300.0
1.0158	0.25214	300.0
1.0322	0.25255	300.0
1.0486	0.25301	300.0
1.0650	0.25344	300.0
1.0814	0.25385	300.0
1.0978	0.25426	300.0
1.1141	0.25467	300.0
1.1305	0.25508	300.0
1.1469	0.25548	300.0
1.1633	0.25587	300.0
1.1797	0.25625	300.0
1.1961	0.25664	300.0
1.2124	0.25702	300.0
1.2288	0.25740	300.0
1.2452	0.25778	300.0
1.2616	0.25814	300.0
1.2862	0.25868	300.0
1.3189	0.25940	300.0
1.3517	0.26009	300.0
1.3845	0.26077	300.0
1.4172	0.26144	300.0
1.4500	0.26207	300.0
1.4828	0.26272	300.0
1.5156	0.26334	300.0
1.5483	0.26397	300.0
1.5811	0.26457	300.0
1.6139	0.26516	300.0
1.6466	0.26574	300.0
1.6794	0.26631	300.0
1.7122	0.26687	300.0
1.7449	0.26742	300.0
1.7777	0.26795	300.0
1.8105	0.26849	300.0
1.8432	0.26902	300.0
1.8760	0.26952	300.0
1.9088	0.27003	300.0
1.9415	0.27052	300.0
1.9743	0.27101	300.0
2.0071	0.27151	300.0
2.0398	0.27198	300.0
2.0726	0.27246	300.0
2.1054	0.27293	300.0
2.1381	0.27338	300.0
2.1709	0.27384	300.0
2.2037	0.27427	300.0
2.2364	0.27472	300.0
2.2692	0.27516	300.0
2.3020	0.27558	300.0
2.3348	0.27601	300.0
2.3675	0.27643	300.0
2.4003	0.27683	300.0
2.4331	0.27724	300.0
2.4658	0.27765	300.0
2.4986	0.27805	300.0
2.5314	0.27845	300.0
2.5641	0.27884	300.0
2.6133	0.27942	300.0
2.6788	0.28018	300.0
2.7444	0.28092	300.0
2.8099	0.28164	300.0
2.8754	0.28236	300.0
2.9410	0.28305	300.0
3.0065	0.28374	300.0
3.0720	0.28442	300.0
3.1376	0.28508	300.0
3.2031	0.28572	300.0
3.2686	0.28636	300.0
3.3342	0.28698	300.0
3.3997	0.28760	300.0
3.4652	0.28821	300.0
3.5308	0.28882	300.0
3.5963	0.28942	300.0
3.6619	0.29000	300.0
3.7274	0.29056	300.0
3.7929	0.29113	300.0
3.8585	0.29168	300.0
3.9240	0.29222	300.0
3.9895	0.29277	300.0
4.0551	0.29331	300.0
4.1206	0.29383	300.0
4.1861	0.29434	300.0
4.2517	0.29486	300.0
4.3172	0.29536	300.0
4.3828	0.29584	300.0
4.4483	0.29634	300.0
4.5138	0.29683	300.0
4.5794	0.29732	300.0
4.6449	0.29778	300.0
4.7104	0.29825	300.0
4.7760	0.29871	300.0
4.8415	0.29916	300.0
4.9070	0.29960	300.0
4.9726	0.30005	300.0
5.0381	0.30051	300.0
5.1036	0.30095	300.0
5.1692	0.30138	300.0
5.2675	0.30202	300.0
5.3986	0.30284	300.0
5.5296	0.30368	300.0
5.6607	0.30450	300.0
5.7918	0.30528	300.0
5.9228	0.30605	300.0
6.0539	0.30683	300.0
6.1850	0.30758	300.0
6.3161	0.30830	300.0
6.4471	0.30902	300.0
6.5782	0.30974	300.0
6.7093	0.31043	300.0
6.8404	0.31111	300.0
6.9714	0.31179	300.0
7.1025	0.31248	300.0
7.2336	0.31312	300.0
7.3646	0.31376	300.0
7.4957	0.31441	300.0
7.6268	0.31505	300.0
7.7579	0.31566	300.0
7.8889	0.31626	300.0
8.0200	0.31688	300.0
8.1511	0.31748	300.0
8.2821	0.31805	300.0
8.4132	0.31862	300.0
8.5443	0.31920	300.0
8.6754	0.31976	300.0
8.8064	0.32031	300.0
8.9375	0.32086	300.0
9.0686	0.32141	300.0
9.1996	0.32194	300.0
9.3307	0.32246	300.0
9.4618	0.32299	300.0
9.5929	0.32352	300.0
9.7239	0.32403	300.0
9.8550	0.32452	300.0
9.9861	0.32504	300.0
10.117	0.32554	300.0
10.248	0.32603	300.0
10.379	0.32651	300.0
10.576	0.32724	300.0
10.838	0.32817	300.0
11.100	0.32911	300.0
11.362	0.33002	300.0
11.624	0.33094	300.0
11.887	0.33182	300.0
12.149	0.33270	300.0
12.411	0.33355	300.0
12.673	0.33440	300.0
12.935	0.33522	300.0
13.197	0.33603	300.0
13.459	0.33683	300.0
13.722	0.33762	300.0
13.984	0.33839	300.0
14.246	0.33915	300.0
14.508	0.33991	300.0
14.770	0.34064	300.0
15.032	0.34138	300.0
15.294	0.34209	300.0
15.557	0.34281	300.0
15.819	0.34351	300.0
16.081	0.34420	300.0
16.343	0.34488	300.0
16.605	0.34555	300.0
16.867	0.34621	300.0
17.130	0.34688	300.0
17.392	0.34753	300.0
17.654	0.34817	300.0
17.916	0.34881	300.0
18.178	0.34944	300.0
18.440	0.35006	300.0
18.702	0.35068	300.0
18.965	0.35128	300.0
19.227	0.35188	300.0
19.489	0.35248	300.0
19.751	0.35307	300.0
20.013	0.35366	300.0
20.275	0.35424	300.0
20.537	0.35481	300.0
20.800	0.35538	300.0
21.193	0.35624	300.0
21.717	0.35734	300.0
22.241	0.35843	300.0
22.766	0.35950	300.0
23.290	0.36056	300.0
23.814	0.36161	300.0
24.338	0.36263	300.0
24.863	0.36364	300.0
25.387	0.36464	300.0
25.911	0.36563	300.0
26.436	0.36661	300.0
26.960	0.36756	300.0
27.484	0.36851	300.0
28.008	0.36944	300.0
28.533	0.37035	300.0
29.057	0.37127	300.0
29.581	0.37217	300.0
30.106	0.37306	300.0
30.630	0.37394	300.0
31.154	0.37481	300.0
31.678	0.37566	300.0
32.203	0.37652	300.0
32.727	0.37736	300.0
33.251	0.37819	300.0
33.776	0.37901	300.0
34.300	0.37982	300.0
34.824	0.38063	300.0
35.349	0.38143	300.0
35.873	0.38222	300.0
36.397	0.38301	300.0
36.921	0.38380	300.0
37.446	0.38459	300.0
37.970	0.38538	300.0
38.494	0.38614	300.0
39.019	0.38690	300.0
39.543	0.38765	300.0
40.067	0.38838	300.0
40.591	0.38912	300.0
41.116	0.38984	300.0
41.640	0.39057	300.0
42.426	0.39164	300.0
43.475	0.39304	300.0
44.524	0.39441	300.0
45.572	0.39579	300.0
46.621	0.39714	300.0
47.669	0.39846	300.0
48.718	0.39975	300.0
49.766	0.40103	300.0
50.815	0.40228	300.0
51.864	0.40352	300.0
52.912	0.40475	300.0
53.961	0.40595	300.0
55.009	0.40715	300.0
56.058	0.40835	300.0
57.106	0.40952	300.0
58.155	0.41067	300.0
59.204	0.41183	300.0
60.252	0.41299	300.0
61.301	0.41412	300.0
62.349	0.41524	300.0
63.398	0.41633	300.0
64.446	0.41741	300.0
65.495	0.41848	300.0
66.544	0.41955	300.0
67.592	0.42059	300.0
68.641	0.42165	300.0
69.689	0.42269	300.0
70.738	0.42375	300.0
71.787	0.42477	300.0
72.835	0.42579	300.0
73.884	0.42679	300.0
74.932	0.42778	300.0
75.981	0.42876	300.0
77.029	0.42974	300.0
78.078	0.43070	300.0
79.127	0.43165	300.0
80.175	0.43260	300.0
81.224	0.43354	300.0
82.272	0.43448	300.0
83.321	0.43542	300.0
84.894	0.43681	300.0
86.991	0.43864	300.0
89.088	0.44046	300.0
91.185	0.44226	300.0
93.282	0.44403	300.0
95.379	0.44576	300.0
97.477	0.44747	300.0
99.574	0.44913	300.0
101.67	0.45077	300.0
103.77	0.45239	300.0
105.87	0.45399	300.0
107.96	0.45558	300.0
110.06	0.45717	300.0
112.16	0.45873	300.0
114.25	0.46030	300.0
116.35	0.46186	300.0
118.45	0.46339	300.0
120.55	0.46489	300.0
122.64	0.46636	300.0
124.74	0.46781	300.0
126.84	0.46925	300.0
128.93	0.47067	300.0
131.03	0.47207	300.0
133.13	0.47347	300.0
135.23	0.47485	300.0
137.32	0.47624	300.0
139.42	0.47764	300.0
141.52	0.47903	300.0
143.61	0.48043	300.0
145.71	0.48181	300.0
147.81	0.48315	300.0
149.91	0.48448	300.0
152.00	0.48580	300.0
154.10	0.48711	300.0
156.20	0.48840	300.0
158.29	0.48970	300.0
160.39	0.49100	300.0
162.49	0.49229	300.0
164.59	0.49357	300.0
166.68	0.49485	300.0
169.83	0.49675	300.0
174.02	0.49924	300.0
178.22	0.50167	300.0
182.41	0.50405	300.0
186.61	0.50647	300.0
190.80	0.50887	300.0
194.99	0.51121	300.0
199.19	0.51351	300.0
203.38	0.51577	300.0
207.58	0.51799	300.0
211.77	0.52017	300.0
215.97	0.52233	300.0
220.16	0.52445	300.0
224.35	0.52655	300.0
228.55	0.52862	300.0
232.74	0.53064	300.0
236.94	0.53266	300.0
241.13	0.53470	300.0
245.33	0.53671	300.0
249.52	0.53864	300.0
253.71	0.54050	300.0
257.91	0.54233	300.0
262.10	0.54412	300.0
266.30	0.54591	300.0
270.49	0.54769	300.0
274.69	0.54941	300.0
278.88	0.55110	300.0
283.07	0.55279	300.0
287.27	0.55447	300.0
291.46	0.55613	300.0
295.66	0.55784	300.0
299.85	0.55949	300.0
304.05	0.56106	300.0
308.24	0.56260	300.0
312.43	0.56416	300.0
316.63	0.56575	300.0
320.82	0.56731	300.0
325.02	0.56884	300.0
329.21	0.57033	300.0
333.41	0.57179	300.0
339.70	0.57404	300.0
348.09	0.57700	300.0
356.47	0.57982	300.0
364.86	0.58260	300.0
373.25	0.58536	300.0
381.64	0.58803	300.0
390.03	0.59063	300.0
398.42	0.59324	300.0
406.81	0.59574	300.0
415.20	0.59824	300.0
423.58	0.60074	300.0
431.97	0.60311	300.0
440.36	0.60547	300.0
448.75	0.60780	300.0
457.14	0.61006	300.0
465.53	0.61232	300.0
473.92	0.61459	300.0
482.30	0.61676	300.0
490.69	0.61892	300.0
499.08	0.62113	300.0
507.47	0.62323	300.0
515.86	0.62530	300.0
524.25	0.62737	300.0
532.64	0.62938	300.0
541.02	0.63137	300.0
549.41	0.63340	300.0
557.80	0.63532	300.0
566.19	0.63725	300.0
574.58	0.63926	300.0
582.97	0.64112	300.0
591.36	0.64300	300.0
599.74	0.64494	300.0
608.13	0.64683	300.0
616.52	0.64871	300.0
624.91	0.65066	300.0
633.30	0.65252	300.0
641.69	0.65439	300.0
650.08	0.65632	300.0
658.46	0.65819	300.0
666.85	0.66003	300.0
679.44	0.66281	300.0
696.21	0.66644	300.0
712.99	0.67004	300.0
729.77	0.67357	300.0
746.55	0.67712	300.0
763.32	0.68063	300.0
780.10	0.68419	300.0
796.88	0.68769	300.0
813.65	0.69120	300.0
830.43	0.69471	300.0
847.21	0.69820	300.0
863.99	0.70173	300.0
880.76	0.70529	300.0
897.54	0.70872	300.0
914.32	0.71216	300.0
931.09	0.71564	300.0
947.87	0.71914	300.0
964.65	0.72270	300.0
981.43	0.72632	300.0
998.20	0.72998	300.0
1015.0	0.73370	300.0
1031.8	0.73755	300.0
1048.5	0.74123	300.0
1065.3	0.74489	300.0
1082.1	0.74867	300.0
1098.9	0.75255	300.0
1115.6	0.75649	300.0
1132.4	0.76058	300.0
1149.2	0.76472	300.0
1166.0	0.76889	300.0
1182.8	0.77312	300.0
1199.5	0.77743	300.0
1216.3	0.78180	300.0
1233.1	0.78628	300.0
1249.9	0.79088	300.0
1266.6	0.79572	300.0
1283.4	0.80083	300.0
1300.2	0.80611	300.0
1317.0	0.81158	300.0
1333.7	0.81723	300.0
1358.9	0.82632	300.0
1392.5	0.83992	300.0
1426.0	0.85534	300.0
1459.6	0.87393	300.0
1493.1	0.89856	300.0
1526.7	0.93622	300.0
1560.2	435.14	300.0
1593.8	2982.1	300.0
